# scan = 126
# date = 9/7/2024
# time = 4:11:13 AM
# proposal = 32905
# experiment = Effects of electric field on phonon dispersion and lifetimes of poled PMN-30PT
# experiment_number = 812
# command = scan h 2 k -0.4 l 0 e 20 0.5 0.25 preset mcu 30
# builtin_command = scan h 2 k -0.4 l 0 e 20 0.5 0.25 preset mcu 30
# users = George Yumnam, Michael Manley, Puspa Upreti, Raphael Hermann, SHAOFEI WANG
# local_contact = Songxue Chi
# scan_title = (2,-0.4,0) G to X transverse mode scan at E 400 V
# monochromator = PG002
# analyzer = Pg002
# sense = -+-
# collimation = 48-40-40-120
# samplename = PMN-30PT
# sampletype = crystal
# samplemosaic = 30.000000
# latticeconstants = 4.023634,4.023634,4.023634,90.000000,90.000000,90.000000
# ubmatrix = -0.008055,-0.248252,-0.008588,-0.248328,0.007840,0.006285,-0.006007,0.008785,-0.248304
# mode = 0
# plane_normal = 0.034555,-0.025290,0.999083
# ubconf = UB04Sep2024_115522AM.ini
# preset_type = normal 
# preset_channel = mcu
# preset_value = 30.000000
# def_x = e
# def_y = detector
# col_headers = 
#   Pt.          h          k          l          e       time   detector    monitor        mcu focal_length         m1         m2   mcrystal       marc     mtrans     mfocus       ampl         dc       freq     output       temp     temp_2         s1         s2        sgl        sgu        bbb        bbl        bbr        bbt        bab        bal        bar        bat        stl        stu         a1         a2          q         ei         ef   ampl_out output_state        vti     sample
      1     2.0000    -0.4001    -0.0001    20.0027     25.318     45.000 194311.000     30.000    43.4765   -20.0773   -26.4546   120.0962    -0.1480    -3.0001   -54.2224     0.0000   400.0000     0.0000     1.0000   300.0000   300.0000   -50.0379    51.0745    -1.9790    -1.4485    20.0000    20.0000    10.0000    20.0000    26.0000    10.0000    16.0000    20.0000    -0.0005     0.0005   159.4164   -41.1662     3.1850    34.7027    14.7000     2.0000     1.0000   300.0650     0.000
      2     2.0000    -0.4000    -0.0001    19.7498     25.260     45.000 194311.000     30.000    43.6339   -20.0773   -26.5533   120.0962    -0.1480    -3.0001   -54.0105     0.0000   400.0000     0.0000     1.0000   300.0000   300.0000   -50.2041    51.3180    -1.9790    -1.4485    20.0000    20.0000    10.0000    20.0000    26.0000    10.0000    16.0000    20.0000    -0.0005     0.0005   159.4164   -41.1662     3.1850    34.4498    14.7000     2.0000     1.0000   300.0260     0.000
      3     2.0000    -0.4000    -0.0001    19.4998     25.181     35.000 194311.000     30.000    43.7931   -20.0773   -26.6519   120.0962    -0.1480    -3.0001   -53.7978     0.0000   400.0000     0.0000     1.0000   300.0000   300.0000   -50.3711    51.5598    -1.9790    -1.4485    20.0000    20.0000    10.0000    20.0000    26.0000    10.0000    16.0000    20.0000    -0.0005     0.0005   159.4164   -41.1662     3.1850    34.1998    14.7000     2.0000     1.0000   300.0120     0.000
      4     2.0000    -0.4000    -0.0001    19.2501     25.292     36.000 194311.000     30.000    43.9541   -20.0773   -26.7516   120.0962    -0.1480    -3.0001   -53.5845     0.0000   400.0000     0.0000     1.0000   300.0000   300.0000   -50.5370    51.8019    -1.9790    -1.4485    20.0000    20.0000    10.0000    20.0000    26.0000    10.0000    16.0000    20.0000    -0.0005     0.0005   159.4164   -41.1662     3.1851    33.9501    14.7000     2.0000     1.0000   300.0020     0.000
      5     2.0000    -0.4000    -0.0001    19.0002     25.550     31.000 194311.000     30.000    44.1168   -20.0773   -26.8524   120.0962    -0.1480    -3.0001   -53.3706     0.0000   400.0000     0.0000     1.0000   300.0000   300.0000   -50.7028    52.0430    -1.9790    -1.4485    20.0000    20.0000    10.0000    20.0000    26.0000    10.0000    16.0000    20.0000    -0.0005     0.0005   159.4164   -41.1662     3.1850    33.7002    14.7000     2.0000     1.0000   299.9870     0.000
      6     2.0000    -0.4000    -0.0001    18.7495     25.630     57.000 194311.000     30.000    44.2813   -20.0773   -26.9548   120.0962    -0.1480    -3.0001   -53.1560     0.0000   400.0000     0.0000     1.0000   300.0000   300.0000   -50.8687    52.2844    -1.9790    -1.4485    20.0000    20.0000    10.0000    20.0000    26.0000    10.0000    16.0000    20.0000    -0.0005     0.0005   159.4164   -41.1662     3.1849    33.4495    14.7000     2.0000     1.0000   299.9950     0.000
      7     2.0000    -0.4000    -0.0001    18.5001     25.836     62.000 194311.000     30.000    44.4478   -20.0773   -27.0577   120.0962    -0.1480    -3.0001   -52.9407     0.0000   400.0000     0.0000     1.0000   300.0000   300.0000   -51.0341    52.5281    -1.9790    -1.4485    20.0000    20.0000    10.0000    20.0000    26.0000    10.0000    16.0000    20.0000    -0.0005     0.0005   159.4164   -41.1662     3.1850    33.2001    14.7000     2.0000     1.0000   299.9950     0.000
      8     2.0001    -0.4000    -0.0001    18.2502     25.898     58.000 194311.000     30.000    44.6161   -20.0773   -27.1621   120.0962    -0.1480    -3.0001   -52.7248     0.0000   400.0000     0.0000     1.0000   300.0000   300.0000   -51.1991    52.7743    -1.9790    -1.4485    20.0000    20.0000    10.0000    20.0000    26.0000    10.0000    16.0000    20.0000    -0.0005     0.0005   159.4164   -41.1662     3.1851    32.9502    14.7000     2.0000     1.0000   300.0070     0.000
      9     2.0001    -0.4000    -0.0001    17.9999     26.209     59.000 194311.000     30.000    44.7863   -20.0773   -27.2678   120.0962    -0.1480    -3.0001   -52.5081     0.0000   400.0000     0.0000     1.0000   300.0000   300.0000   -51.3642    53.0172    -1.9790    -1.4485    20.0000    20.0000    10.0000    20.0000    26.0000    10.0000    16.0000    20.0000    -0.0005     0.0005   159.4164   -41.1662     3.1851    32.7000    14.7000     2.0000     1.0000   299.9450     0.000
     10     2.0000    -0.4000    -0.0001    17.7505     26.229     48.000 194311.000     30.000    44.9585   -20.0773   -27.3745   120.0962    -0.1480    -3.0001   -52.2908     0.0000   400.0000     0.0000     1.0000   300.0000   300.0000   -51.5292    53.2576    -1.9790    -1.4485    20.0000    20.0000    10.0000    20.0000    26.0000    10.0000    16.0000    20.0000    -0.0005     0.0005   159.4164   -41.1662     3.1849    32.4505    14.7000     2.0000     1.0000   300.0050     0.000
     11     2.0000    -0.4000    -0.0001    17.4997     26.486     58.000 194311.000     30.000    45.1326   -20.0773   -27.4829   120.0962    -0.1480    -3.0001   -52.0728     0.0000   400.0000     0.0000     1.0000   300.0000   300.0000   -51.6941    53.5050    -1.9790    -1.4485    20.0000    20.0000    10.0000    20.0000    26.0000    10.0000    16.0000    20.0000    -0.0005     0.0005   159.4164   -41.1662     3.1850    32.1997    14.7000     2.0000     1.0000   300.0150     0.000
     12     2.0000    -0.4000    -0.0001    17.2498     26.483     65.000 194311.000     30.000    45.3089   -20.0773   -27.5924   120.0962    -0.1480    -3.0001   -51.8540     0.0000   400.0000     0.0000     1.0000   300.0000   300.0000   -51.8584    53.7501    -1.9790    -1.4485    20.0000    20.0000    10.0000    20.0000    26.0000    10.0000    16.0000    20.0000    -0.0005     0.0005   159.4164   -41.1662     3.1850    31.9498    14.7000     2.0000     1.0000   300.0080     0.000
     13     2.0001    -0.4000    -0.0001    17.0002     26.545     76.000 194311.000     30.000    45.4872   -20.0773   -27.7029   120.0962    -0.1480    -3.0001   -51.6345     0.0000   400.0000     0.0000     1.0000   300.0000   300.0000   -52.0224    53.9974    -1.9790    -1.4485    20.0000    20.0000    10.0000    20.0000    26.0000    10.0000    16.0000    20.0000    -0.0005     0.0005   159.4164   -41.1662     3.1851    31.7003    14.7000     2.0000     1.0000   300.0040     0.000
     14     2.0000    -0.4000    -0.0001    16.7497     26.731     60.000 194311.000     30.000    45.6676   -20.0773   -27.8152   120.0962    -0.1480    -3.0001   -51.4143     0.0000   400.0000     0.0000     1.0000   300.0000   300.0000   -52.1868    54.2416    -1.9790    -1.4485    20.0000    20.0000    10.0000    20.0000    26.0000    10.0000    16.0000    20.0000    -0.0005     0.0005   159.4164   -41.1662     3.1850    31.4497    14.7000     2.0000     1.0000   300.0060     0.000
     15     2.0000    -0.4000    -0.0001    16.5001     26.841     54.000 194311.000     30.000    45.8503   -20.0773   -27.9285   120.0962    -0.1480    -3.0001   -51.1934     0.0000   400.0000     0.0000     1.0000   300.0000   300.0000   -52.3507    54.4871    -1.9790    -1.4485    20.0000    20.0000    10.0000    20.0000    26.0000    10.0000    16.0000    20.0000    -0.0005     0.0005   159.4164   -41.1662     3.1850    31.2001    14.7000     2.0000     1.0000   299.9970     0.000
     16     2.0000    -0.4000    -0.0001    16.2499     26.896     70.000 194311.000     30.000    46.0351   -20.0773   -28.0435   120.0962    -0.1480    -3.0001   -50.9717     0.0000   400.0000     0.0000     1.0000   300.0000   300.0000   -52.5143    54.7353    -1.9790    -1.4485    20.0000    20.0000    10.0000    20.0000    26.0000    10.0000    16.0000    20.0000    -0.0005     0.0005   159.4164   -41.1662     3.1850    30.9499    14.7000     2.0000     1.0000   299.9810     0.000
     17     2.0001    -0.4000    -0.0001    15.9997     26.868     58.000 194311.000     30.000    46.2221   -20.0773   -28.1599   120.0962    -0.1480    -3.0001   -50.7492     0.0000   400.0000     0.0000     1.0000   300.0000   300.0000   -52.6776    54.9853    -1.9790    -1.4485    20.0000    20.0000    10.0000    20.0000    26.0000    10.0000    16.0000    20.0000    -0.0005     0.0005   159.4164   -41.1662     3.1851    30.6997    14.7000     2.0000     1.0000   300.0240     0.000
     18     2.0000    -0.4000    -0.0001    15.7505     27.021     53.000 194311.000     30.000    46.4115   -20.0773   -28.2773   120.0962    -0.1480    -3.0001   -50.5260     0.0000   400.0000     0.0000     1.0000   300.0000   300.0000   -52.8414    55.2322    -1.9790    -1.4485    20.0000    20.0000    10.0000    20.0000    26.0000    10.0000    16.0000    20.0000    -0.0005     0.0005   159.4164   -41.1662     3.1850    30.4505    14.7000     2.0000     1.0000   300.0240     0.000
     19     2.0000    -0.4000    -0.0001    15.4998     27.128     67.000 194311.000     30.000    46.6032   -20.0773   -28.3968   120.0962    -0.1480    -3.0001   -50.3021     0.0000   400.0000     0.0000     1.0000   300.0000   300.0000   -53.0042    55.4800    -1.9790    -1.4485    20.0000    20.0000    10.0000    20.0000    26.0000    10.0000    16.0000    20.0000    -0.0005     0.0005   159.4164   -41.1662     3.1850    30.1998    14.7000     2.0000     1.0000   300.0000     0.000
     20     2.0000    -0.4000    -0.0001    15.2501     27.174     52.000 194311.000     30.000    46.7972   -20.0773   -28.5175   120.0962    -0.1480    -3.0001   -50.0773     0.0000   400.0000     0.0000     1.0000   300.0000   300.0000   -53.1675    55.7314    -1.9790    -1.4485    20.0000    20.0000    10.0000    20.0000    26.0000    10.0000    16.0000    20.0000    -0.0005     0.0005   159.4164   -41.1662     3.1850    29.9501    14.7000     2.0000     1.0000   300.0130     0.000
     21     2.0001    -0.4000    -0.0001    15.0001     27.257     43.000 194311.000     30.000    46.9938   -20.0773   -28.6398   120.0962    -0.1480    -3.0001   -49.8518     0.0000   400.0000     0.0000     1.0000   300.0000   300.0000   -53.3305    55.9826    -1.9790    -1.4485    20.0000    20.0000    10.0000    20.0000    26.0000    10.0000    16.0000    20.0000    -0.0005     0.0005   159.4164   -41.1662     3.1851    29.7001    14.7000     2.0000     1.0000   299.9810     0.000
     22     2.0000    -0.4000    -0.0001    14.7497     27.176     49.000 194311.000     30.000    47.1929   -20.0773   -28.7639   120.0962    -0.1480    -3.0001   -49.6254     0.0000   400.0000     0.0000     1.0000   300.0000   300.0000   -53.4930    56.2318    -1.9790    -1.4485    20.0000    20.0000    10.0000    20.0000    26.0000    10.0000    16.0000    20.0000    -0.0005     0.0005   159.4164   -41.1662     3.1850    29.4497    14.7000     2.0000     1.0000   300.0080     0.000
     23     2.0000    -0.4000    -0.0001    14.4999     26.833     34.000 194311.000     30.000    47.3944   -20.0773   -28.8893   120.0962    -0.1480    -3.0001   -49.3982     0.0000   400.0000     0.0000     1.0000   300.0000   300.0000   -53.6556    56.4832    -1.9790    -1.4485    20.0000    20.0000    10.0000    20.0000    26.0000    10.0000    16.0000    20.0000    -0.0005     0.0005   159.4164   -41.1662     3.1850    29.1999    14.7000     2.0000     1.0000   300.0220     0.000
     24     2.0000    -0.4000    -0.0001    14.2506     26.481     58.000 194311.000     30.000    47.5986   -20.0773   -29.0161   120.0962    -0.1480    -3.0001   -49.1702     0.0000   400.0000     0.0000     1.0000   300.0000   300.0000   -53.8176    56.7373    -1.9790    -1.4485    20.0000    20.0000    10.0000    20.0000    26.0000    10.0000    16.0000    20.0000    -0.0005     0.0005   159.4164   -41.1662     3.1851    28.9507    14.7000     2.0000     1.0000   300.0210     0.000
     25     2.0001    -0.4000    -0.0001    13.9994     26.030     30.000 194311.000     30.000    47.8055   -20.0773   -29.1456   120.0962    -0.1480    -3.0001   -48.9414     0.0000   400.0000     0.0000     1.0000   300.0000   300.0000   -53.9801    56.9922    -1.9790    -1.4485    20.0000    20.0000    10.0000    20.0000    26.0000    10.0000    16.0000    20.0000    -0.0005     0.0005   159.4164   -41.1662     3.1851    28.6995    14.7000     2.0000     1.0000   300.0080     0.000
     26     2.0000    -0.4000    -0.0001    13.7502     25.755     39.000 194311.000     30.000    48.0151   -20.0773   -29.2759   120.0962    -0.1480    -3.0001   -48.7117     0.0000   400.0000     0.0000     1.0000   300.0000   300.0000   -54.1421    57.2444    -1.9790    -1.4485    20.0000    20.0000    10.0000    20.0000    26.0000    10.0000    16.0000    20.0000    -0.0005     0.0005   159.4164   -41.1662     3.1850    28.4502    14.7000     2.0000     1.0000   299.9920     0.000
     27     2.0000    -0.4000    -0.0001    13.5004     25.532     29.000 194311.000     30.000    48.2274   -20.0773   -29.4082   120.0962    -0.1480    -3.0001   -48.4811     0.0000   400.0000     0.0000     1.0000   300.0000   300.0000   -54.3041    57.4985    -1.9790    -1.4485    20.0000    20.0000    10.0000    20.0000    26.0000    10.0000    16.0000    20.0000    -0.0005     0.0005   159.4164   -41.1662     3.1850    28.2004    14.7000     2.0000     1.0000   300.0070     0.000
     28     2.0000    -0.4000    -0.0001    13.2496     25.607     30.000 194311.000     30.000    48.4427   -20.0773   -29.5428   120.0962    -0.1480    -3.0001   -48.2497     0.0000   400.0000     0.0000     1.0000   300.0000   300.0000   -54.4656    57.7544    -1.9790    -1.4485    20.0000    20.0000    10.0000    20.0000    26.0000    10.0000    16.0000    20.0000    -0.0005     0.0005   159.4164   -41.1662     3.1850    27.9496    14.7000     2.0000     1.0000   299.9550     0.000
     29     2.0000    -0.4000    -0.0001    13.0000     25.775     33.000 194311.000     30.000    48.6608   -20.0773   -29.6786   120.0962    -0.1480    -3.0001   -48.0174     0.0000   400.0000     0.0000     1.0000   300.0000   300.0000   -54.6273    58.0113    -1.9790    -1.4485    20.0000    20.0000    10.0000    20.0000    26.0000    10.0000    16.0000    20.0000    -0.0005     0.0005   159.4164   -41.1662     3.1850    27.7000    14.7000     2.0000     1.0000   300.0040     0.000
     30     2.0000    -0.4000    -0.0001    12.7499     25.974     39.000 194311.000     30.000    48.8819   -20.0773   -29.8167   120.0962    -0.1480    -3.0001   -47.7842     0.0000   400.0000     0.0000     1.0000   300.0000   300.0000   -54.7890    58.2684    -1.9790    -1.4485    20.0000    20.0000    10.0000    20.0000    26.0000    10.0000    16.0000    20.0000    -0.0005     0.0005   159.4164   -41.1662     3.1850    27.4499    14.7000     2.0000     1.0000   300.0110     0.000
     31     2.0000    -0.4000    -0.0001    12.5000     26.412     34.000 194311.000     30.000    49.1060   -20.0773   -29.9565   120.0962    -0.1480    -3.0001   -47.5501     0.0000   400.0000     0.0000     1.0000   300.0000   300.0000   -54.9498    58.5279    -1.9790    -1.4485    20.0000    20.0000    10.0000    20.0000    26.0000    10.0000    16.0000    20.0000    -0.0005     0.0005   159.4164   -41.1662     3.1851    27.2000    14.7000     2.0000     1.0000   299.9990     0.000
     32     2.0001    -0.4001    -0.0001    12.2504     26.730     20.000 194311.000     30.000    49.3332   -20.0773   -30.0982   120.0962    -0.1480    -3.0001   -47.3151     0.0000   400.0000     0.0000     1.0000   300.0000   300.0000   -55.1112    58.7891    -1.9790    -1.4485    20.0000    20.0000    10.0000    20.0000    26.0000    10.0000    16.0000    20.0000    -0.0005     0.0005   159.4164   -41.1662     3.1852    26.9504    14.7000     2.0000     1.0000   300.0180     0.000
     33     1.9999    -0.4000    -0.0001    11.9996     27.175     35.000 194311.000     30.000    49.5636   -20.0773   -30.2426   120.0962    -0.1480    -3.0001   -47.0791     0.0000   400.0000     0.0000     1.0000   300.0000   300.0000   -55.2720    59.0442    -1.9790    -1.4485    20.0000    20.0000    10.0000    20.0000    26.0000    10.0000    16.0000    20.0000    -0.0005     0.0005   159.4164   -41.1662     3.1849    26.6996    14.7000     2.0000     1.0000   300.0070     0.000
     34     2.0000    -0.4000    -0.0001    11.7500     27.146     38.000 194311.000     30.000    49.7973   -20.0773   -30.3884   120.0962    -0.1480    -3.0001   -46.8422     0.0000   400.0000     0.0000     1.0000   300.0000   300.0000   -55.4327    59.3078    -1.9790    -1.4485    20.0000    20.0000    10.0000    20.0000    26.0000    10.0000    16.0000    20.0000    -0.0005     0.0005   159.4164   -41.1662     3.1850    26.4500    14.7000     2.0000     1.0000   299.9990     0.000
     35     2.0001    -0.4001    -0.0001    11.5001     26.977     38.000 194311.000     30.000    50.0343   -20.0773   -30.5364   120.0962    -0.1480    -3.0001   -46.6044     0.0000   400.0000     0.0000     1.0000   300.0000   300.0000   -55.5939    59.5718    -1.9790    -1.4485    20.0000    20.0000    10.0000    20.0000    26.0000    10.0000    16.0000    20.0000    -0.0005     0.0005   159.4164   -41.1662     3.1851    26.2001    14.7000     2.0000     1.0000   299.9900     0.000
     36     2.0000    -0.4000    -0.0001    11.2500     26.773     28.000 194311.000     30.000    50.2748   -20.0773   -30.6869   120.0962    -0.1480    -3.0001   -46.3655     0.0000   400.0000     0.0000     1.0000   300.0000   300.0000   -55.7541    59.8334    -1.9790    -1.4485    20.0000    20.0000    10.0000    20.0000    26.0000    10.0000    16.0000    20.0000    -0.0005     0.0005   159.4164   -41.1662     3.1850    25.9500    14.7000     2.0000     1.0000   300.0140     0.000
     37     2.0000    -0.4000    -0.0001    11.0000     26.388     23.000 194311.000     30.000    50.5187   -20.0773   -30.8395   120.0962    -0.1480    -3.0001   -46.1257     0.0000   400.0000     0.0000     1.0000   300.0000   300.0000   -55.9143    60.0962    -1.9790    -1.4485    20.0000    20.0000    10.0000    20.0000    26.0000    10.0000    16.0000    20.0000    -0.0005     0.0005   159.4164   -41.1662     3.1850    25.7000    14.7000     2.0000     1.0000   300.0160     0.000
     38     2.0000    -0.4000    -0.0001    10.7500     26.234     21.000 194311.000     30.000    50.7662   -20.0773   -30.9943   120.0962    -0.1480    -3.0001   -45.8849     0.0000   400.0000     0.0000     1.0000   300.0000   300.0000   -56.0744    60.3631    -1.9790    -1.4485    20.0000    20.0000    10.0000    20.0000    26.0000    10.0000    16.0000    20.0000    -0.0005     0.0005   159.4164   -41.1662     3.1850    25.4501    14.7000     2.0000     1.0000   300.0060     0.000
     39     2.0000    -0.4000    -0.0001    10.5002     26.318     34.000 194311.000     30.000    51.0174   -20.0773   -31.1514   120.0962    -0.1480    -3.0001   -45.6430     0.0000   400.0000     0.0000     1.0000   300.0000   300.0000   -56.2346    60.6285    -1.9790    -1.4485    20.0000    20.0000    10.0000    20.0000    26.0000    10.0000    16.0000    20.0000    -0.0005     0.0005   159.4164   -41.1662     3.1850    25.2003    14.7000     2.0000     1.0000   300.0050     0.000
     40     2.0000    -0.4000    -0.0001    10.2505     26.348     21.000 194311.000     30.000    51.2724   -20.0773   -31.3109   120.0962    -0.1480    -3.0001   -45.4002     0.0000   400.0000     0.0000     1.0000   300.0000   300.0000   -56.3945    60.8960    -1.9790    -1.4485    20.0000    20.0000    10.0000    20.0000    26.0000    10.0000    16.0000    20.0000    -0.0005     0.0005   159.4164   -41.1662     3.1850    24.9505    14.7000     2.0000     1.0000   299.9780     0.000
     41     2.0000    -0.4000    -0.0001     9.9998     26.502     23.000 194311.000     30.000    51.5312   -20.0773   -31.4735   120.0962    -0.1480    -3.0001   -45.1562     0.0000   400.0000     0.0000     1.0000   300.0000   300.0000   -56.5543    61.1666    -1.9790    -1.4485    20.0000    20.0000    10.0000    20.0000    26.0000    10.0000    16.0000    20.0000    -0.0005     0.0005   159.4164   -41.1662     3.1851    24.6998    14.7000     2.0000     1.0000   300.0130     0.000
     42     2.0000    -0.4000    -0.0001     9.7499     26.973     17.000 194311.000     30.000    51.7940   -20.0773   -31.6382   120.0962    -0.1480    -3.0001   -44.9112     0.0000   400.0000     0.0000     1.0000   300.0000   300.0000   -56.7139    61.4357    -1.9790    -1.4485    20.0000    20.0000    10.0000    20.0000    26.0000    10.0000    16.0000    20.0000    -0.0005     0.0005   159.4164   -41.1662     3.1850    24.4499    14.7000     2.0000     1.0000   300.0040     0.000
     43     2.0000    -0.4000    -0.0001     9.4998     27.381     20.000 194311.000     30.000    52.0609   -20.0773   -31.8055   120.0962    -0.1480    -3.0001   -44.6652     0.0000   400.0000     0.0000     1.0000   300.0000   300.0000   -56.8729    61.7062    -1.9790    -1.4485    20.0000    20.0000    10.0000    20.0000    26.0000    10.0000    16.0000    20.0000    -0.0005     0.0005   159.4164   -41.1662     3.1850    24.1998    14.7000     2.0000     1.0000   300.0040     0.000
     44     2.0001    -0.4000    -0.0001     9.2502     27.580     26.000 194311.000     30.000    52.3319   -20.0773   -31.9753   120.0962    -0.1480    -3.0001   -44.4180     0.0000   400.0000     0.0000     1.0000   300.0000   300.0000   -57.0322    61.9814    -1.9790    -1.4485    20.0000    20.0000    10.0000    20.0000    26.0000    10.0000    16.0000    20.0000    -0.0005     0.0005   159.4164   -41.1662     3.1851    23.9502    14.7000     2.0000     1.0000   299.9930     0.000
     45     2.0000    -0.4000    -0.0001     9.0000     27.362     30.000 194311.000     30.000    52.6071   -20.0773   -32.1481   120.0962    -0.1480    -3.0001   -44.1697     0.0000   400.0000     0.0000     1.0000   300.0000   300.0000   -57.1916    62.2519    -1.9790    -1.4485    20.0000    20.0000    10.0000    20.0000    26.0000    10.0000    16.0000    20.0000    -0.0005     0.0005   159.4164   -41.1662     3.1850    23.7000    14.7000     2.0000     1.0000   299.9980     0.000
     46     2.0000    -0.4000    -0.0001     8.7501     26.996     25.000 194311.000     30.000    52.8868   -20.0773   -32.3237   120.0962    -0.1480    -3.0001   -43.9203     0.0000   400.0000     0.0000     1.0000   300.0000   300.0000   -57.3501    62.5285    -1.9790    -1.4485    20.0000    20.0000    10.0000    20.0000    26.0000    10.0000    16.0000    20.0000    -0.0005     0.0005   159.4164   -41.1662     3.1850    23.4501    14.7000     2.0000     1.0000   300.0060     0.000
     47     2.0000    -0.4000    -0.0001     8.5001     26.251     36.000 194311.000     30.000    53.1710   -20.0773   -32.5021   120.0962    -0.1480    -3.0001   -43.6697     0.0000   400.0000     0.0000     1.0000   300.0000   300.0000   -57.5091    62.8052    -1.9790    -1.4485    20.0000    20.0000    10.0000    20.0000    26.0000    10.0000    16.0000    20.0000    -0.0005     0.0005   159.4164   -41.1662     3.1850    23.2001    14.7000     2.0000     1.0000   300.0110     0.000
     48     2.0000    -0.4000    -0.0001     8.2499     25.328     32.000 194311.000     30.000    53.4598   -20.0773   -32.6837   120.0962    -0.1480    -3.0001   -43.4180     0.0000   400.0000     0.0000     1.0000   300.0000   300.0000   -57.6675    63.0822    -1.9790    -1.4485    20.0000    20.0000    10.0000    20.0000    26.0000    10.0000    16.0000    20.0000    -0.0005     0.0005   159.4164   -41.1662     3.1850    22.9499    14.7000     2.0000     1.0000   299.9980     0.000
     49     2.0001    -0.4000    -0.0001     7.9999     24.621     36.000 194311.000     30.000    53.7534   -20.0773   -32.8683   120.0962    -0.1480    -3.0001   -43.1651     0.0000   400.0000     0.0000     1.0000   300.0000   300.0000   -57.8260    63.3647    -1.9790    -1.4485    20.0000    20.0000    10.0000    20.0000    26.0000    10.0000    16.0000    20.0000    -0.0005     0.0005   159.4164   -41.1662     3.1851    22.6999    14.7000     2.0000     1.0000   300.0090     0.000
     50     2.0000    -0.4000    -0.0001     7.7501     24.154     52.000 194311.000     30.000    54.0519   -20.0773   -33.0559   120.0962    -0.1480    -3.0001   -42.9109     0.0000   400.0000     0.0000     1.0000   300.0000   300.0000   -57.9841    63.6422    -1.9790    -1.4485    20.0000    20.0000    10.0000    20.0000    26.0000    10.0000    16.0000    20.0000    -0.0005     0.0005   159.4164   -41.1662     3.1849    22.4501    14.7000     2.0000     1.0000   300.0020     0.000
     51     2.0000    -0.4000    -0.0001     7.4998     24.003     42.000 194311.000     30.000    54.3554   -20.0773   -33.2471   120.0962    -0.1480    -3.0001   -42.6556     0.0000   400.0000     0.0000     1.0000   300.0000   300.0000   -58.1418    63.9271    -1.9790    -1.4485    20.0000    20.0000    10.0000    20.0000    26.0000    10.0000    16.0000    20.0000    -0.0005     0.0005   159.4164   -41.1662     3.1850    22.1998    14.7000     2.0000     1.0000   300.0220     0.000
     52     2.0000    -0.4000    -0.0001     7.2503     23.889     48.000 194311.000     30.000    54.6640   -20.0773   -33.4410   120.0962    -0.1480    -3.0001   -42.3989     0.0000   400.0000     0.0000     1.0000   300.0000   300.0000   -58.2998    64.2107    -1.9790    -1.4485    20.0000    20.0000    10.0000    20.0000    26.0000    10.0000    16.0000    20.0000    -0.0005     0.0005   159.4164   -41.1662     3.1850    21.9503    14.7000     2.0000     1.0000   300.0020     0.000
     53     2.0000    -0.4000    -0.0001     6.9997     23.960     49.000 194311.000     30.000    54.9780   -20.0773   -33.6393   120.0962    -0.1480    -3.0001   -42.1410     0.0000   400.0000     0.0000     1.0000   300.0000   300.0000   -58.4574    64.4970    -1.9790    -1.4485    20.0000    20.0000    10.0000    20.0000    26.0000    10.0000    16.0000    20.0000    -0.0005     0.0005   159.4164   -41.1662     3.1850    21.6997    14.7000     2.0000     1.0000   300.0070     0.000
     54     2.0000    -0.4000    -0.0001     6.7501     24.008     57.000 194311.000     30.000    55.2975   -20.0773   -33.8403   120.0962    -0.1480    -3.0001   -41.8818     0.0000   400.0000     0.0000     1.0000   300.0000   300.0000   -58.6148    64.7853    -1.9790    -1.4485    20.0000    20.0000    10.0000    20.0000    26.0000    10.0000    16.0000    20.0000    -0.0005     0.0005   159.4164   -41.1662     3.1850    21.4501    14.7000     2.0000     1.0000   300.0100     0.000
     55     2.0000    -0.4000    -0.0001     6.4999     24.189     56.000 194311.000     30.000    55.6225   -20.0773   -34.0454   120.0962    -0.1480    -3.0001   -41.6214     0.0000   400.0000     0.0000     1.0000   300.0000   300.0000   -58.7720    65.0731    -1.9790    -1.4485    20.0000    20.0000    10.0000    20.0000    26.0000    10.0000    16.0000    20.0000    -0.0005     0.0005   159.4164   -41.1662     3.1850    21.1999    14.7000     2.0000     1.0000   300.0040     0.000
     56     2.0000    -0.4000    -0.0001     6.2500     24.389     57.000 194311.000     30.000    55.9535   -20.0773   -34.2541   120.0962    -0.1480    -3.0001   -41.3595     0.0000   400.0000     0.0000     1.0000   300.0000   300.0000   -58.9286    65.3670    -1.9790    -1.4485    20.0000    20.0000    10.0000    20.0000    26.0000    10.0000    16.0000    20.0000    -0.0005     0.0005   159.4164   -41.1662     3.1851    20.9500    14.7000     2.0000     1.0000   299.9790     0.000
     57     2.0000    -0.4000    -0.0001     6.0002     24.825     77.000 194311.000     30.000    56.2903   -20.0773   -34.4667   120.0962    -0.1480    -3.0001   -41.0963     0.0000   400.0000     0.0000     1.0000   300.0000   300.0000   -59.0851    65.6562    -1.9790    -1.4485    20.0000    20.0000    10.0000    20.0000    26.0000    10.0000    16.0000    20.0000    -0.0005     0.0005   159.4164   -41.1662     3.1849    20.7002    14.7000     2.0000     1.0000   299.9980     0.000
     58     2.0000    -0.4000    -0.0001     5.7501     25.271     74.000 194311.000     30.000    56.6333   -20.0773   -34.6834   120.0962    -0.1480    -3.0001   -40.8317     0.0000   400.0000     0.0000     1.0000   300.0000   300.0000   -59.2418    65.9542    -1.9790    -1.4485    20.0000    20.0000    10.0000    20.0000    26.0000    10.0000    16.0000    20.0000    -0.0005     0.0005   159.4164   -41.1662     3.1850    20.4501    14.7000     2.0000     1.0000   299.9610     0.000
     59     2.0000    -0.4000    -0.0001     5.4999     25.620     83.000 194311.000     30.000    56.9827   -20.0773   -34.9044   120.0962    -0.1480    -3.0001   -40.5656     0.0000   400.0000     0.0000     1.0000   300.0000   300.0000   -59.3979    66.2491    -1.9790    -1.4485    20.0000    20.0000    10.0000    20.0000    26.0000    10.0000    16.0000    20.0000    -0.0005     0.0005   159.4164   -41.1662     3.1849    20.1999    14.7000     2.0000     1.0000   300.0080     0.000
     60     2.0000    -0.4000    -0.0001     5.2501     26.066     61.000 194311.000     30.000    57.3387   -20.0773   -35.1292   120.0962    -0.1480    -3.0001   -40.2982     0.0000   400.0000     0.0000     1.0000   300.0000   300.0000   -59.5540    66.5503    -1.9790    -1.4485    20.0000    20.0000    10.0000    20.0000    26.0000    10.0000    16.0000    20.0000    -0.0005     0.0005   159.4164   -41.1662     3.1850    19.9501    14.7000     2.0000     1.0000   300.0170     0.000
     61     2.0000    -0.4000    -0.0001     5.0000     26.303     61.000 194311.000     30.000    57.7013   -20.0773   -35.3589   120.0962    -0.1480    -3.0001   -40.0292     0.0000   400.0000     0.0000     1.0000   300.0000   300.0000   -59.7091    66.8493    -1.9790    -1.4485    20.0000    20.0000    10.0000    20.0000    26.0000    10.0000    16.0000    20.0000    -0.0005     0.0005   159.4164   -41.1662     3.1849    19.7000    14.7000     2.0000     1.0000   300.0160     0.000
     62     2.0000    -0.4000    -0.0001     4.7500     26.507     56.000 194311.000     30.000    58.0709   -20.0773   -35.5929   120.0962    -0.1480    -3.0001   -39.7588     0.0000   400.0000     0.0000     1.0000   300.0000   300.0000   -59.8646    67.1556    -1.9790    -1.4485    20.0000    20.0000    10.0000    20.0000    26.0000    10.0000    16.0000    20.0000    -0.0005     0.0005   159.4164   -41.1662     3.1851    19.4500    14.7000     2.0000     1.0000   300.0230     0.000
     63     2.0000    -0.4000    -0.0001     4.5000     26.598     64.000 194311.000     30.000    58.4478   -20.0773   -35.8318   120.0962    -0.1480    -3.0001   -39.4868     0.0000   400.0000     0.0000     1.0000   300.0000   300.0000   -60.0196    67.4605    -1.9790    -1.4485    20.0000    20.0000    10.0000    20.0000    26.0000    10.0000    16.0000    20.0000    -0.0005     0.0005   159.4164   -41.1662     3.1850    19.2000    14.7000     2.0000     1.0000   300.0000     0.000
     64     2.0001    -0.4001    -0.0001     4.2500     26.717     43.000 194311.000     30.000    58.8321   -20.0773   -36.0754   120.0962    -0.1480    -3.0001   -39.2133     0.0000   400.0000     0.0000     1.0000   300.0000   300.0000   -60.1744    67.7710    -1.9790    -1.4485    20.0000    20.0000    10.0000    20.0000    26.0000    10.0000    16.0000    20.0000    -0.0005     0.0005   159.4164   -41.1662     3.1851    18.9500    14.7000     2.0000     1.0000   300.0090     0.000
     65     2.0000    -0.4000    -0.0001     3.9999     27.057     45.000 194311.000     30.000    59.2240   -20.0773   -36.3242   120.0962    -0.1480    -3.0001   -38.9382     0.0000   400.0000     0.0000     1.0000   300.0000   300.0000   -60.3284    68.0771    -1.9790    -1.4485    20.0000    20.0000    10.0000    20.0000    26.0000    10.0000    16.0000    20.0000    -0.0005     0.0005   159.4164   -41.1662     3.1850    18.6999    14.7000     2.0000     1.0000   300.0140     0.000
     66     2.0001    -0.4001    -0.0001     3.7500     27.409     48.000 194311.000     30.000    59.6240   -20.0773   -36.5780   120.0962    -0.1480    -3.0001   -38.6614     0.0000   400.0000     0.0000     1.0000   300.0000   300.0000   -60.4824    68.3938    -1.9790    -1.4485    20.0000    20.0000    10.0000    20.0000    26.0000    10.0000    16.0000    20.0000    -0.0005     0.0005   159.4164   -41.1662     3.1851    18.4500    14.7000     2.0000     1.0000   300.0070     0.000
     67     2.0000    -0.4000    -0.0001     3.5000     28.306     33.000 194311.000     30.000    60.0321   -20.0773   -36.8373   120.0962    -0.1480    -3.0001   -38.3830     0.0000   400.0000     0.0000     1.0000   300.0000   300.0000   -60.6361    68.7062    -1.9790    -1.4485    20.0000    20.0000    10.0000    20.0000    26.0000    10.0000    16.0000    20.0000    -0.0005     0.0005   159.4164   -41.1662     3.1850    18.2000    14.7000     2.0000     1.0000   300.0080     0.000
     68     2.0000    -0.4000    -0.0001     3.2499     29.198     36.000 194311.000     30.000    60.4487   -20.0773   -37.1024   120.0962    -0.1480    -3.0001   -38.1029     0.0000   400.0000     0.0000     1.0000   300.0000   300.0000   -60.7894    69.0231    -1.9790    -1.4485    20.0000    20.0000    10.0000    20.0000    26.0000    10.0000    16.0000    20.0000    -0.0005     0.0005   159.4164   -41.1662     3.1850    17.9499    14.7000     2.0000     1.0000   299.9990     0.000
     69     2.0000    -0.4000    -0.0001     3.0003     30.053     41.000 194311.000     30.000    60.8740   -20.0773   -37.3726   120.0962    -0.1480    -3.0001   -37.8211     0.0000   400.0000     0.0000     1.0000   300.0000   300.0000   -60.9419    69.3452    -1.9790    -1.4485    20.0000    20.0000    10.0000    20.0000    26.0000    10.0000    16.0000    20.0000    -0.0005     0.0005   159.4164   -41.1662     3.1850    17.7003    14.7000     2.0000     1.0000   300.0020     0.000
     70     2.0000    -0.4000    -0.0001     2.7498     29.917     40.000 194311.000     30.000    61.3086   -20.0773   -37.6499   120.0962    -0.1480    -3.0001   -37.5375     0.0000   400.0000     0.0000     1.0000   300.0000   300.0000   -61.0945    69.6670    -1.9790    -1.4485    20.0000    20.0000    10.0000    20.0000    26.0000    10.0000    16.0000    20.0000    -0.0005     0.0005   159.4164   -41.1662     3.1850    17.4498    14.7000     2.0000     1.0000   300.0120     0.000
     71     2.0001    -0.4001    -0.0001     2.5000     29.420     39.000 194311.000     30.000    61.7525   -20.0773   -37.9327   120.0962    -0.1480    -3.0001   -37.2522     0.0000   400.0000     0.0000     1.0000   300.0000   300.0000   -61.2459    69.9970    -1.9790    -1.4485    20.0000    20.0000    10.0000    20.0000    26.0000    10.0000    16.0000    20.0000    -0.0005     0.0005   159.4164   -41.1662     3.1851    17.2001    14.7000     2.0000     1.0000   300.0030     0.000
     72     2.0000    -0.4000    -0.0001     2.2499     29.545     32.000 194311.000     30.000    62.2063   -20.0773   -38.2224   120.0962    -0.1480    -3.0001   -36.9649     0.0000   400.0000     0.0000     1.0000   300.0000   300.0000   -61.3976    70.3245    -1.9790    -1.4485    20.0000    20.0000    10.0000    20.0000    26.0000    10.0000    16.0000    20.0000    -0.0005     0.0005   159.4164   -41.1662     3.1850    16.9499    14.7000     2.0000     1.0000   300.0030     0.000
     73     2.0000    -0.4000    -0.0001     2.0000     29.992     36.000 194311.000     30.000    62.6702   -20.0773   -38.5185   120.0962    -0.1480    -3.0001   -36.6758     0.0000   400.0000     0.0000     1.0000   300.0000   300.0000   -61.5485    70.6538    -1.9790    -1.4485    20.0000    20.0000    10.0000    20.0000    26.0000    10.0000    16.0000    20.0000    -0.0005     0.0005   159.4164   -41.1662     3.1849    16.7000    14.7000     2.0000     1.0000   299.9670     0.000
     74     2.0001    -0.4001    -0.0001     1.7500     30.486     51.000 194311.000     30.000    63.1445   -20.0773   -38.8217   120.0962    -0.1480    -3.0001   -36.3848     0.0000   400.0000     0.0000     1.0000   300.0000   300.0000   -61.6988    70.9940    -1.9790    -1.4485    20.0000    20.0000    10.0000    20.0000    26.0000    10.0000    16.0000    20.0000    -0.0005     0.0005   159.4164   -41.1662     3.1851    16.4500    14.7000     2.0000     1.0000   300.0210     0.000
     75     2.0000    -0.4000    -0.0001     1.5000     30.695     46.000 194311.000     30.000    63.6299   -20.0773   -39.1322   120.0962    -0.1480    -3.0001   -36.0918     0.0000   400.0000     0.0000     1.0000   300.0000   300.0000   -61.8481    71.3314    -1.9790    -1.4485    20.0000    20.0000    10.0000    20.0000    26.0000    10.0000    16.0000    20.0000    -0.0005     0.0005   159.4164   -41.1662     3.1850    16.2000    14.7000     2.0000     1.0000   300.0130     0.000
     76     2.0000    -0.4000    -0.0001     1.2500     31.890     51.000 194311.000     30.000    64.1267   -20.0773   -39.4503   120.0962    -0.1480    -3.0001   -35.7968     0.0000   400.0000     0.0000     1.0000   300.0000   300.0000   -61.9973    71.6718    -1.9790    -1.4485    20.0000    20.0000    10.0000    20.0000    26.0000    10.0000    16.0000    20.0000    -0.0005     0.0005   159.4164   -41.1662     3.1850    15.9500    14.7000     2.0000     1.0000   299.9920     0.000
     77     2.0000    -0.4000    -0.0001     1.0000     33.241     82.000 194311.000     30.000    64.6352   -20.0773   -39.7763   120.0962    -0.1480    -3.0001   -35.4997     0.0000   400.0000     0.0000     1.0000   300.0000   300.0000   -62.1457    72.0196    -1.9790    -1.4485    20.0000    20.0000    10.0000    20.0000    26.0000    10.0000    16.0000    20.0000    -0.0005     0.0005   159.4164   -41.1662     3.1851    15.7000    14.7000     2.0000     1.0000   300.0210     0.000
     78     2.0000    -0.4000    -0.0001     0.7500     33.840    145.000 194311.000     30.000    65.1560   -20.0773   -40.1105   120.0962    -0.1480    -3.0001   -35.2005     0.0000   400.0000     0.0000     1.0000   300.0000   300.0000   -62.2939    72.3686    -1.9790    -1.4485    20.0000    20.0000    10.0000    20.0000    26.0000    10.0000    16.0000    20.0000    -0.0005     0.0005   159.4164   -41.1662     3.1850    15.4500    14.7000     2.0000     1.0000   300.0100     0.000
     79     2.0000    -0.4000    -0.0001     0.5000     33.092    274.000 194311.000     30.000    65.6897   -20.0773   -40.4533   120.0962    -0.1480    -3.0001   -34.8991     0.0000   400.0000     0.0000     1.0000   300.0000   300.0000   -62.4400    72.7208    -1.9790    -1.4485    20.0000    20.0000    10.0000    20.0000    26.0000    10.0000    16.0000    20.0000    -0.0005     0.0005   159.4164   -41.1662     3.1850    15.2000    14.7000     2.0000     1.0000   299.9760     0.000
# Sum of Counts = 3889
# Center of Mass = 9.438317+/-0.236852
# Full Width Half-Maximum = 12.649938+/-0.178540
# 4:58:24 AM  9/7/2024   scan completed.
