# scan = 37
# date = 9/4/2024
# time = 11:32:10 PM
# proposal = 32905
# experiment = Effects of electric field on phonon dispersion and lifetimes of poled PMN-30PT
# experiment_number = 812
# command = scan h 2.5 k 0.3 l 0 e 15 0 0.25 preset mcu 30
# builtin_command = scan h 2.5 k 0.3 l 0 e 15 0 0.25 preset mcu 30
# users = George Yumnam, Michael Manley, Puspa Upreti, Raphael Hermann, SHAOFEI WANG
# local_contact = Songxue Chi
# scan_title = h2.5 k0.3 l0 scans
# monochromator = PG002
# analyzer = Pg002
# sense = -+-
# collimation = 48-40-40-120
# samplename = PMN-30PT
# sampletype = crystal
# samplemosaic = 30.000000
# latticeconstants = 4.023634,4.023634,4.023634,90.000000,90.000000,90.000000
# ubmatrix = -0.008055,-0.248252,-0.008588,-0.248328,0.007840,0.006285,-0.006007,0.008785,-0.248304
# mode = 0
# plane_normal = 0.034555,-0.025290,0.999083
# ubconf = UB04Sep2024_115522AM.ini
# preset_type = normal 
# preset_channel = mcu
# preset_value = 30.000000
# def_x = e
# def_y = detector
# col_headers = 
#   Pt.          h          k          l          e       time   detector    monitor        mcu focal_length         m1         m2   mcrystal       marc     mtrans     mfocus       ampl         dc       freq     output       temp     temp_2         s1         s2        sgl        sgu        bbb        bbl        bbr        bbt        bab        bal        bar        bat        stl        stu         a1         a2          q         ei         ef   ampl_out output_state        vti     sample
      1     2.4999     0.3000    -0.0001    15.0017     27.815     58.000 194311.000     30.000    46.9938   -20.0773   -28.6390   120.0962    -0.1480    -3.0001   -49.8518     0.0000     0.0000     0.0000     1.0000   300.0000   300.0000   -31.6197    72.7848    -1.9790    -1.4485    20.0000    20.0000    10.0000    20.0000    26.0000    10.0000    16.0000    20.0000    -0.0005     0.0005   159.4164   -41.1662     3.9318    29.7017    14.7000     2.0000     1.0000   300.0440     0.000
      2     2.5000     0.3000    -0.0001    14.7496     27.358     39.000 194311.000     30.000    47.1929   -20.0773   -28.7640   120.0962    -0.1480    -3.0001   -49.6254     0.0000     0.0000     0.0000     1.0000   300.0000   300.0000   -31.6940    73.0733    -1.9790    -1.4485    20.0000    20.0000    10.0000    20.0000    26.0000    10.0000    16.0000    20.0000    -0.0005     0.0005   159.4164   -41.1662     3.9319    29.4496    14.7000     2.0000     1.0000   300.0230     0.000
      3     2.5000     0.3000    -0.0001    14.4998     27.045     42.000 194311.000     30.000    47.3944   -20.0773   -28.8894   120.0962    -0.1480    -3.0001   -49.3982     0.0000     0.0000     0.0000     1.0000   300.0000   300.0000   -31.7674    73.3617    -1.9790    -1.4485    20.0000    20.0000    10.0000    20.0000    26.0000    10.0000    16.0000    20.0000    -0.0005     0.0005   159.4164   -41.1662     3.9319    29.1998    14.7000     2.0000     1.0000   299.9990     0.000
      4     2.5000     0.3000    -0.0001    14.2506     26.718     47.000 194311.000     30.000    47.5986   -20.0773   -29.0161   120.0962    -0.1480    -3.0001   -49.1702     0.0000     0.0000     0.0000     1.0000   300.0000   300.0000   -31.8407    73.6493    -1.9790    -1.4485    20.0000    20.0000    10.0000    20.0000    26.0000    10.0000    16.0000    20.0000    -0.0005     0.0005   159.4164   -41.1662     3.9320    28.9507    14.7000     2.0000     1.0000   300.0120     0.000
      5     2.5000     0.3000    -0.0001    13.9994     26.359     42.000 194311.000     30.000    47.8055   -20.0773   -29.1456   120.0962    -0.1480    -3.0001   -48.9414     0.0000     0.0000     0.0000     1.0000   300.0000   300.0000   -31.9127    73.9401    -1.9790    -1.4485    20.0000    20.0000    10.0000    20.0000    26.0000    10.0000    16.0000    20.0000    -0.0005     0.0005   159.4164   -41.1662     3.9319    28.6995    14.7000     2.0000     1.0000   299.9960     0.000
      6     2.5000     0.3000    -0.0001    13.7504     26.003     37.000 194311.000     30.000    48.0151   -20.0773   -29.2758   120.0962    -0.1480    -3.0001   -48.7117     0.0000     0.0000     0.0000     1.0000   300.0000   300.0000   -31.9844    74.2316    -1.9790    -1.4485    20.0000    20.0000    10.0000    20.0000    26.0000    10.0000    16.0000    20.0000    -0.0005     0.0005   159.4164   -41.1662     3.9320    28.4504    14.7000     2.0000     1.0000   300.0050     0.000
      7     2.5000     0.3000    -0.0001    13.5002     25.698     34.000 194311.000     30.000    48.2274   -20.0773   -29.4083   120.0962    -0.1480    -3.0001   -48.4811     0.0000     0.0000     0.0000     1.0000   300.0000   300.0000   -32.0550    74.5253    -1.9790    -1.4485    20.0000    20.0000    10.0000    20.0000    26.0000    10.0000    16.0000    20.0000    -0.0005     0.0005   159.4164   -41.1662     3.9319    28.2002    14.7000     2.0000     1.0000   300.0020     0.000
      8     2.5000     0.3000    -0.0001    13.2496     25.821     27.000 194311.000     30.000    48.4427   -20.0773   -29.5428   120.0962    -0.1480    -3.0001   -48.2497     0.0000     0.0000     0.0000     1.0000   300.0000   300.0000   -32.1247    74.8216    -1.9790    -1.4485    20.0000    20.0000    10.0000    20.0000    26.0000    10.0000    16.0000    20.0000    -0.0005     0.0005   159.4164   -41.1662     3.9319    27.9496    14.7000     2.0000     1.0000   299.9970     0.000
      9     2.5000     0.3000    -0.0001    13.0000     25.819     31.000 194311.000     30.000    48.6608   -20.0773   -29.6786   120.0962    -0.1480    -3.0001   -48.0174     0.0000     0.0000     0.0000     1.0000   300.0000   300.0000   -32.1944    75.1194    -1.9790    -1.4485    20.0000    20.0000    10.0000    20.0000    26.0000    10.0000    16.0000    20.0000    -0.0005     0.0005   159.4164   -41.1662     3.9320    27.7000    14.7000     2.0000     1.0000   300.0030     0.000
     10     2.5000     0.3000    -0.0001    12.7500     26.214     36.000 194311.000     30.000    48.8819   -20.0773   -29.8166   120.0962    -0.1480    -3.0001   -47.7842     0.0000     0.0000     0.0000     1.0000   300.0000   300.0000   -32.2621    75.4184    -1.9790    -1.4485    20.0000    20.0000    10.0000    20.0000    26.0000    10.0000    16.0000    20.0000    -0.0005     0.0005   159.4164   -41.1662     3.9319    27.4500    14.7000     2.0000     1.0000   300.0120     0.000
     11     2.5000     0.3000    -0.0001    12.4999     26.604     30.000 194311.000     30.000    49.1060   -20.0773   -29.9566   120.0962    -0.1480    -3.0001   -47.5501     0.0000     0.0000     0.0000     1.0000   300.0000   300.0000   -32.3296    75.7200    -1.9790    -1.4485    20.0000    20.0000    10.0000    20.0000    26.0000    10.0000    16.0000    20.0000    -0.0005     0.0005   159.4164   -41.1662     3.9319    27.1999    14.7000     2.0000     1.0000   300.0020     0.000
     12     2.5000     0.3000    -0.0001    12.2504     26.893     28.000 194311.000     30.000    49.3332   -20.0773   -30.0982   120.0962    -0.1480    -3.0001   -47.3151     0.0000     0.0000     0.0000     1.0000   300.0000   300.0000   -32.3965    76.0229    -1.9790    -1.4485    20.0000    20.0000    10.0000    20.0000    26.0000    10.0000    16.0000    20.0000    -0.0005     0.0005   159.4164   -41.1662     3.9319    26.9504    14.7000     2.0000     1.0000   300.0080     0.000
     13     2.5000     0.3000    -0.0001    11.9996     27.171     37.000 194311.000     30.000    49.5636   -20.0773   -30.2426   120.0962    -0.1480    -3.0001   -47.0791     0.0000     0.0000     0.0000     1.0000   300.0000   300.0000   -32.4620    76.3292    -1.9790    -1.4485    20.0000    20.0000    10.0000    20.0000    26.0000    10.0000    16.0000    20.0000    -0.0005     0.0005   159.4164   -41.1662     3.9319    26.6996    14.7000     2.0000     1.0000   300.0180     0.000
     14     2.5000     0.3000    -0.0001    11.7500     27.191     42.000 194311.000     30.000    49.7973   -20.0773   -30.3884   120.0962    -0.1480    -3.0001   -46.8422     0.0000     0.0000     0.0000     1.0000   300.0000   300.0000   -32.5267    76.6357    -1.9790    -1.4485    20.0000    20.0000    10.0000    20.0000    26.0000    10.0000    16.0000    20.0000    -0.0005     0.0005   159.4164   -41.1662     3.9319    26.4500    14.7000     2.0000     1.0000   300.0070     0.000
     15     2.5000     0.3000    -0.0001    11.5002     26.983     29.000 194311.000     30.000    50.0343   -20.0773   -30.5364   120.0962    -0.1480    -3.0001   -46.6044     0.0000     0.0000     0.0000     1.0000   300.0000   300.0000   -32.5907    76.9475    -1.9790    -1.4485    20.0000    20.0000    10.0000    20.0000    26.0000    10.0000    16.0000    20.0000    -0.0005     0.0005   159.4164   -41.1662     3.9320    26.2002    14.7000     2.0000     1.0000   300.0130     0.000
     16     2.5000     0.3000    -0.0001    11.2501     26.875     45.000 194311.000     30.000    50.2748   -20.0773   -30.6868   120.0962    -0.1480    -3.0001   -46.3655     0.0000     0.0000     0.0000     1.0000   300.0000   300.0000   -32.6539    77.2576    -1.9790    -1.4485    20.0000    20.0000    10.0000    20.0000    26.0000    10.0000    16.0000    20.0000    -0.0005     0.0005   159.4164   -41.1662     3.9319    25.9501    14.7000     2.0000     1.0000   300.0070     0.000
     17     2.5000     0.3000    -0.0001    10.9999     26.614     24.000 194311.000     30.000    50.5187   -20.0773   -30.8395   120.0962    -0.1480    -3.0001   -46.1257     0.0000     0.0000     0.0000     1.0000   300.0000   300.0000   -32.7154    77.5755    -1.9790    -1.4485    20.0000    20.0000    10.0000    20.0000    26.0000    10.0000    16.0000    20.0000    -0.0005     0.0005   159.4164   -41.1662     3.9320    25.6999    14.7000     2.0000     1.0000   299.9310     0.000
     18     2.5000     0.3000    -0.0001    10.7501     26.544     41.000 194311.000     30.000    50.7662   -20.0773   -30.9943   120.0962    -0.1480    -3.0001   -45.8849     0.0000     0.0000     0.0000     1.0000   300.0000   300.0000   -32.7764    77.8907    -1.9790    -1.4485    20.0000    20.0000    10.0000    20.0000    26.0000    10.0000    16.0000    20.0000    -0.0005     0.0005   159.4164   -41.1662     3.9319    25.4501    14.7000     2.0000     1.0000   300.0240     0.000
     19     2.5000     0.3000    -0.0001    10.5001     26.435     33.000 194311.000     30.000    51.0174   -20.0773   -31.1515   120.0962    -0.1480    -3.0001   -45.6430     0.0000     0.0000     0.0000     1.0000   300.0000   300.0000   -32.8362    78.2117    -1.9790    -1.4485    20.0000    20.0000    10.0000    20.0000    26.0000    10.0000    16.0000    20.0000    -0.0005     0.0005   159.4164   -41.1662     3.9320    25.2001    14.7000     2.0000     1.0000   299.9260     0.000
     20     2.5000     0.3000    -0.0001    10.2504     26.681     37.000 194311.000     30.000    51.2724   -20.0773   -31.3110   120.0962    -0.1480    -3.0001   -45.4002     0.0000     0.0000     0.0000     1.0000   300.0000   300.0000   -32.8950    78.5330    -1.9790    -1.4485    20.0000    20.0000    10.0000    20.0000    26.0000    10.0000    16.0000    20.0000    -0.0005     0.0005   159.4164   -41.1662     3.9320    24.9504    14.7000     2.0000     1.0000   300.0050     0.000
     21     2.5000     0.3000    -0.0001     9.9999     26.808     49.000 194311.000     30.000    51.5312   -20.0773   -31.4734   120.0962    -0.1480    -3.0001   -45.1562     0.0000     0.0000     0.0000     1.0000   300.0000   300.0000   -32.9526    78.8560    -1.9790    -1.4485    20.0000    20.0000    10.0000    20.0000    26.0000    10.0000    16.0000    20.0000    -0.0005     0.0005   159.4164   -41.1662     3.9319    24.6999    14.7000     2.0000     1.0000   299.9490     0.000
     22     2.5001     0.3000    -0.0001     9.7498     27.307     38.000 194311.000     30.000    51.7940   -20.0773   -31.6382   120.0962    -0.1480    -3.0001   -44.9112     0.0000     0.0000     0.0000     1.0000   300.0000   300.0000   -33.0093    79.1887    -1.9790    -1.4485    20.0000    20.0000    10.0000    20.0000    26.0000    10.0000    16.0000    20.0000    -0.0005     0.0005   159.4164   -41.1662     3.9321    24.4498    14.7000     2.0000     1.0000   299.9890     0.000
     23     2.5000     0.3000    -0.0001     9.4999     27.672     31.000 194311.000     30.000    52.0609   -20.0773   -31.8055   120.0962    -0.1480    -3.0001   -44.6652     0.0000     0.0000     0.0000     1.0000   300.0000   300.0000   -33.0645    79.5151    -1.9790    -1.4485    20.0000    20.0000    10.0000    20.0000    26.0000    10.0000    16.0000    20.0000    -0.0005     0.0005   159.4164   -41.1662     3.9319    24.1999    14.7000     2.0000     1.0000   300.0010     0.000
     24     2.5000     0.3000    -0.0001     9.2502     27.886     43.000 194311.000     30.000    52.3319   -20.0773   -31.9753   120.0962    -0.1480    -3.0001   -44.4180     0.0000     0.0000     0.0000     1.0000   300.0000   300.0000   -33.1191    79.8460    -1.9790    -1.4485    20.0000    20.0000    10.0000    20.0000    26.0000    10.0000    16.0000    20.0000    -0.0005     0.0005   159.4164   -41.1662     3.9319    23.9502    14.7000     2.0000     1.0000   300.0210     0.000
     25     2.5000     0.3000    -0.0001     9.0000     27.675     36.000 194311.000     30.000    52.6071   -20.0773   -32.1481   120.0962    -0.1480    -3.0001   -44.1697     0.0000     0.0000     0.0000     1.0000   300.0000   300.0000   -33.1714    80.1846    -1.9790    -1.4485    20.0000    20.0000    10.0000    20.0000    26.0000    10.0000    16.0000    20.0000    -0.0005     0.0005   159.4164   -41.1662     3.9320    23.7000    14.7000     2.0000     1.0000   300.0140     0.000
     26     2.5000     0.3000    -0.0001     8.7500     27.086     51.000 194311.000     30.000    52.8868   -20.0773   -32.3237   120.0962    -0.1480    -3.0001   -43.9203     0.0000     0.0000     0.0000     1.0000   300.0000   300.0000   -33.2235    80.5224    -1.9790    -1.4485    20.0000    20.0000    10.0000    20.0000    26.0000    10.0000    16.0000    20.0000    -0.0005     0.0005   159.4164   -41.1662     3.9320    23.4500    14.7000     2.0000     1.0000   300.0050     0.000
     27     2.5000     0.3000    -0.0001     8.5001     26.344     57.000 194311.000     30.000    53.1710   -20.0773   -32.5021   120.0962    -0.1480    -3.0001   -43.6697     0.0000     0.0000     0.0000     1.0000   300.0000   300.0000   -33.2737    80.8619    -1.9790    -1.4485    20.0000    20.0000    10.0000    20.0000    26.0000    10.0000    16.0000    20.0000    -0.0005     0.0005   159.4164   -41.1662     3.9319    23.2001    14.7000     2.0000     1.0000   300.0130     0.000
     28     2.5000     0.3000    -0.0001     8.2498     25.354     45.000 194311.000     30.000    53.4598   -20.0773   -32.6838   120.0962    -0.1480    -3.0001   -43.4180     0.0000     0.0000     0.0000     1.0000   300.0000   300.0000   -33.3223    81.2096    -1.9790    -1.4485    20.0000    20.0000    10.0000    20.0000    26.0000    10.0000    16.0000    20.0000    -0.0005     0.0005   159.4164   -41.1662     3.9320    22.9498    14.7000     2.0000     1.0000   299.9980     0.000
     29     2.5000     0.3000    -0.0001     8.0000     24.900     66.000 194311.000     30.000    53.7534   -20.0773   -32.8682   120.0962    -0.1480    -3.0001   -43.1651     0.0000     0.0000     0.0000     1.0000   300.0000   300.0000   -33.3702    81.5562    -1.9790    -1.4485    20.0000    20.0000    10.0000    20.0000    26.0000    10.0000    16.0000    20.0000    -0.0005     0.0005   159.4164   -41.1662     3.9319    22.7000    14.7000     2.0000     1.0000   300.0170     0.000
     30     2.5000     0.3000    -0.0001     7.7502     24.462     65.000 194311.000     30.000    54.0519   -20.0773   -33.0558   120.0962    -0.1480    -3.0001   -42.9109     0.0000     0.0000     0.0000     1.0000   300.0000   300.0000   -33.4162    81.9076    -1.9790    -1.4485    20.0000    20.0000    10.0000    20.0000    26.0000    10.0000    16.0000    20.0000    -0.0005     0.0005   159.4164   -41.1662     3.9320    22.4502    14.7000     2.0000     1.0000   300.0010     0.000
     31     2.5000     0.3000    -0.0001     7.4999     24.056     75.000 194311.000     30.000    54.3554   -20.0773   -33.2470   120.0962    -0.1480    -3.0001   -42.6556     0.0000     0.0000     0.0000     1.0000   300.0000   300.0000   -33.4610    82.2601    -1.9790    -1.4485    20.0000    20.0000    10.0000    20.0000    26.0000    10.0000    16.0000    20.0000    -0.0005     0.0005   159.4164   -41.1662     3.9319    22.1999    14.7000     2.0000     1.0000   300.0100     0.000
     32     2.5000     0.3000    -0.0001     7.2503     24.149     72.000 194311.000     30.000    54.6640   -20.0773   -33.4411   120.0962    -0.1480    -3.0001   -42.3989     0.0000     0.0000     0.0000     1.0000   300.0000   300.0000   -33.5040    82.6194    -1.9790    -1.4485    20.0000    20.0000    10.0000    20.0000    26.0000    10.0000    16.0000    20.0000    -0.0005     0.0005   159.4164   -41.1662     3.9319    21.9503    14.7000     2.0000     1.0000   299.9960     0.000
     33     2.5000     0.3000    -0.0001     6.9997     24.180     66.000 194311.000     30.000    54.9780   -20.0773   -33.6393   120.0962    -0.1480    -3.0001   -42.1410     0.0000     0.0000     0.0000     1.0000   300.0000   300.0000   -33.5451    82.9830    -1.9790    -1.4485    20.0000    20.0000    10.0000    20.0000    26.0000    10.0000    16.0000    20.0000    -0.0005     0.0005   159.4164   -41.1662     3.9320    21.6997    14.7000     2.0000     1.0000   300.0280     0.000
     34     2.5000     0.3000    -0.0001     6.7501     24.224     59.000 194311.000     30.000    55.2975   -20.0773   -33.8403   120.0962    -0.1480    -3.0001   -41.8818     0.0000     0.0000     0.0000     1.0000   300.0000   300.0000   -33.5851    83.3474    -1.9790    -1.4485    20.0000    20.0000    10.0000    20.0000    26.0000    10.0000    16.0000    20.0000    -0.0005     0.0005   159.4164   -41.1662     3.9320    21.4501    14.7000     2.0000     1.0000   300.0100     0.000
     35     2.5000     0.3000    -0.0001     6.4999     24.469     63.000 194311.000     30.000    55.6225   -20.0773   -34.0454   120.0962    -0.1480    -3.0001   -41.6214     0.0000     0.0000     0.0000     1.0000   300.0000   300.0000   -33.6235    83.7161    -1.9790    -1.4485    20.0000    20.0000    10.0000    20.0000    26.0000    10.0000    16.0000    20.0000    -0.0005     0.0005   159.4164   -41.1662     3.9319    21.1999    14.7000     2.0000     1.0000   300.0150     0.000
     36     2.5000     0.3000    -0.0001     6.2500     24.774     67.000 194311.000     30.000    55.9535   -20.0773   -34.2541   120.0962    -0.1480    -3.0001   -41.3595     0.0000     0.0000     0.0000     1.0000   300.0000   300.0000   -33.6596    84.0883    -1.9790    -1.4485    20.0000    20.0000    10.0000    20.0000    26.0000    10.0000    16.0000    20.0000    -0.0005     0.0005   159.4164   -41.1662     3.9319    20.9500    14.7000     2.0000     1.0000   300.0010     0.000
     37     2.5000     0.3000    -0.0001     6.0001     25.174     57.000 194311.000     30.000    56.2903   -20.0773   -34.4667   120.0962    -0.1480    -3.0001   -41.0963     0.0000     0.0000     0.0000     1.0000   300.0000   300.0000   -33.6941    84.4639    -1.9790    -1.4485    20.0000    20.0000    10.0000    20.0000    26.0000    10.0000    16.0000    20.0000    -0.0005     0.0005   159.4164   -41.1662     3.9319    20.7001    14.7000     2.0000     1.0000   300.0090     0.000
     38     2.5000     0.3000    -0.0001     5.7500     25.513     54.000 194311.000     30.000    56.6333   -20.0773   -34.6835   120.0962    -0.1480    -3.0001   -40.8317     0.0000     0.0000     0.0000     1.0000   300.0000   300.0000   -33.7263    84.8448    -1.9790    -1.4485    20.0000    20.0000    10.0000    20.0000    26.0000    10.0000    16.0000    20.0000    -0.0005     0.0005   159.4164   -41.1662     3.9319    20.4500    14.7000     2.0000     1.0000   299.9970     0.000
     39     2.5000     0.3000    -0.0001     5.4998     25.902     51.000 194311.000     30.000    56.9827   -20.0773   -34.9044   120.0962    -0.1480    -3.0001   -40.5656     0.0000     0.0000     0.0000     1.0000   300.0000   300.0000   -33.7572    85.2308    -1.9790    -1.4485    20.0000    20.0000    10.0000    20.0000    26.0000    10.0000    16.0000    20.0000    -0.0005     0.0005   159.4164   -41.1662     3.9319    20.1998    14.7000     2.0000     1.0000   300.0210     0.000
     40     2.5000     0.3000    -0.0001     5.2501     26.291     46.000 194311.000     30.000    57.3387   -20.0773   -35.1292   120.0962    -0.1480    -3.0001   -40.2982     0.0000     0.0000     0.0000     1.0000   300.0000   300.0000   -33.7858    85.6224    -1.9790    -1.4485    20.0000    20.0000    10.0000    20.0000    26.0000    10.0000    16.0000    20.0000    -0.0005     0.0005   159.4164   -41.1662     3.9320    19.9501    14.7000     2.0000     1.0000   300.0060     0.000
     41     2.5000     0.3000    -0.0001     5.0001     26.532     46.000 194311.000     30.000    57.7013   -20.0773   -35.3588   120.0962    -0.1480    -3.0001   -40.0292     0.0000     0.0000     0.0000     1.0000   300.0000   300.0000   -33.8121    86.0159    -1.9790    -1.4485    20.0000    20.0000    10.0000    20.0000    26.0000    10.0000    16.0000    20.0000    -0.0005     0.0005   159.4164   -41.1662     3.9319    19.7001    14.7000     2.0000     1.0000   300.0220     0.000
     42     2.5000     0.3000    -0.0001     4.7501     26.692     36.000 194311.000     30.000    58.0709   -20.0773   -35.5928   120.0962    -0.1480    -3.0001   -39.7588     0.0000     0.0000     0.0000     1.0000   300.0000   300.0000   -33.8364    86.4151    -1.9790    -1.4485    20.0000    20.0000    10.0000    20.0000    26.0000    10.0000    16.0000    20.0000    -0.0005     0.0005   159.4164   -41.1662     3.9320    19.4501    14.7000     2.0000     1.0000   300.0040     0.000
     43     2.5000     0.3000    -0.0001     4.4998     26.827     47.000 194311.000     30.000    58.4478   -20.0773   -35.8319   120.0962    -0.1480    -3.0001   -39.4868     0.0000     0.0000     0.0000     1.0000   300.0000   300.0000   -33.8582    86.8184    -1.9790    -1.4485    20.0000    20.0000    10.0000    20.0000    26.0000    10.0000    16.0000    20.0000    -0.0005     0.0005   159.4164   -41.1662     3.9319    19.1999    14.7000     2.0000     1.0000   300.0190     0.000
     44     2.4999     0.3009    -0.0001     4.2500     26.981     33.000 194311.000     30.000    58.8321   -20.0773   -36.0754   120.0962    -0.1480    -3.0001   -39.2133     0.0000     0.0000     0.0000     1.0000   300.0000   300.0000   -33.8582    87.2269    -1.9790    -1.4485    20.0000    20.0000    10.0000    20.0000    26.0000    10.0000    16.0000    20.0000    -0.0005     0.0005   159.4164   -41.1662     3.9319    18.9500    14.7000     2.0000     1.0000   300.0060     0.000
     45     2.5000     0.3000    -0.0001     3.9999     27.399     44.000 194311.000     30.000    59.2240   -20.0773   -36.3242   120.0962    -0.1480    -3.0001   -38.9382     0.0000     0.0000     0.0000     1.0000   300.0000   300.0000   -33.8948    87.6399    -1.9790    -1.4485    20.0000    20.0000    10.0000    20.0000    26.0000    10.0000    16.0000    20.0000    -0.0005     0.0005   159.4164   -41.1662     3.9319    18.6999    14.7000     2.0000     1.0000   300.0080     0.000
     46     2.4999     0.3007    -0.0001     3.7501     27.855     37.000 194311.000     30.000    59.6240   -20.0773   -36.5779   120.0962    -0.1480    -3.0001   -38.6614     0.0000     0.0000     0.0000     1.0000   300.0000   300.0000   -33.8948    88.0584    -1.9790    -1.4485    20.0000    20.0000    10.0000    20.0000    26.0000    10.0000    16.0000    20.0000    -0.0005     0.0005   159.4164   -41.1662     3.9319    18.4501    14.7000     2.0000     1.0000   300.0130     0.000
     47     2.5000     0.3000    -0.0001     3.5000     28.440     32.000 194311.000     30.000    60.0321   -20.0773   -36.8374   120.0962    -0.1480    -3.0001   -38.3830     0.0000     0.0000     0.0000     1.0000   300.0000   300.0000   -33.9211    88.4848    -1.9790    -1.4485    20.0000    20.0000    10.0000    20.0000    26.0000    10.0000    16.0000    20.0000    -0.0005     0.0005   159.4164   -41.1662     3.9319    18.2000    14.7000     2.0000     1.0000   300.0080     0.000
     48     2.5000     0.3004    -0.0001     3.2499     29.551     43.000 194311.000     30.000    60.4487   -20.0773   -37.1023   120.0962    -0.1480    -3.0001   -38.1029     0.0000     0.0000     0.0000     1.0000   300.0000   300.0000   -33.9211    88.9161    -1.9790    -1.4485    20.0000    20.0000    10.0000    20.0000    26.0000    10.0000    16.0000    20.0000    -0.0005     0.0005   159.4164   -41.1662     3.9319    17.9500    14.7000     2.0000     1.0000   299.9350     0.000
     49     2.4999     0.3006    -0.0001     3.0002     30.280     26.000 194311.000     30.000    60.8740   -20.0773   -37.3728   120.0962    -0.1480    -3.0001   -37.8211     0.0000     0.0000     0.0000     1.0000   300.0000   300.0000   -33.9211    89.3529    -1.9790    -1.4485    20.0000    20.0000    10.0000    20.0000    26.0000    10.0000    16.0000    20.0000    -0.0005     0.0005   159.4164   -41.1662     3.9320    17.7002    14.7000     2.0000     1.0000   299.9860     0.000
     50     2.5000     0.3008    -0.0001     2.7499     30.283     20.000 194311.000     30.000    61.3086   -20.0773   -37.6498   120.0962    -0.1480    -3.0001   -37.5375     0.0000     0.0000     0.0000     1.0000   300.0000   300.0000   -33.9211    89.7970    -1.9790    -1.4485    20.0000    20.0000    10.0000    20.0000    26.0000    10.0000    16.0000    20.0000    -0.0005     0.0005   159.4164   -41.1662     3.9320    17.4499    14.7000     2.0000     1.0000   300.0120     0.000
     51     2.4999     0.3008    -0.0001     2.5000     29.608     20.000 194311.000     30.000    61.7525   -20.0773   -37.9328   120.0962    -0.1480    -3.0001   -37.2522     0.0000     0.0000     0.0000     1.0000   300.0000   300.0000   -33.9211    90.2420    -1.9790    -1.4485    20.0000    20.0000    10.0000    20.0000    26.0000    10.0000    16.0000    20.0000    -0.0005     0.0005   159.4164   -41.1662     3.9319    17.2000    14.7000     2.0000     1.0000   300.0000     0.000
     52     2.4999     0.3006    -0.0001     2.2499     29.776     21.000 194311.000     30.000    62.2063   -20.0773   -38.2223   120.0962    -0.1480    -3.0001   -36.9649     0.0000     0.0000     0.0000     1.0000   300.0000   300.0000   -33.9211    90.6995    -1.9790    -1.4485    20.0000    20.0000    10.0000    20.0000    26.0000    10.0000    16.0000    20.0000    -0.0005     0.0005   159.4164   -41.1662     3.9319    16.9499    14.7000     2.0000     1.0000   300.0030     0.000
     53     2.5000     0.3003    -0.0001     2.0000     30.162     27.000 194311.000     30.000    62.6702   -20.0773   -38.5184   120.0962    -0.1480    -3.0001   -36.6758     0.0000     0.0000     0.0000     1.0000   300.0000   300.0000   -33.9211    91.1627    -1.9790    -1.4485    20.0000    20.0000    10.0000    20.0000    26.0000    10.0000    16.0000    20.0000    -0.0005     0.0005   159.4164   -41.1662     3.9320    16.7000    14.7000     2.0000     1.0000   299.9570     0.000
     54     2.5000     0.3000    -0.0001     1.7500     30.676     32.000 194311.000     30.000    63.1445   -20.0773   -38.8217   120.0962    -0.1480    -3.0001   -36.3848     0.0000     0.0000     0.0000     1.0000   300.0000   300.0000   -33.9181    91.6298    -1.9790    -1.4485    20.0000    20.0000    10.0000    20.0000    26.0000    10.0000    16.0000    20.0000    -0.0005     0.0005   159.4164   -41.1662     3.9319    16.4500    14.7000     2.0000     1.0000   300.0160     0.000
     55     2.5000     0.3000    -0.0001     1.5000     31.031     26.000 194311.000     30.000    63.6299   -20.0773   -39.1322   120.0962    -0.1480    -3.0001   -36.0918     0.0000     0.0000     0.0000     1.0000   300.0000   300.0000   -33.9040    92.1088    -1.9790    -1.4485    20.0000    20.0000    10.0000    20.0000    26.0000    10.0000    16.0000    20.0000    -0.0005     0.0005   159.4164   -41.1662     3.9320    16.2000    14.7000     2.0000     1.0000   300.0140     0.000
     56     2.5000     0.3000    -0.0001     1.2500     32.185     41.000 194311.000     30.000    64.1267   -20.0773   -39.4504   120.0962    -0.1480    -3.0001   -35.7968     0.0000     0.0000     0.0000     1.0000   300.0000   300.0000   -33.8851    92.5938    -1.9790    -1.4485    20.0000    20.0000    10.0000    20.0000    26.0000    10.0000    16.0000    20.0000    -0.0005     0.0005   159.4164   -41.1662     3.9320    15.9500    14.7000     2.0000     1.0000   300.0090     0.000
     57     2.5000     0.3000    -0.0001     1.0000     33.710     61.000 194311.000     30.000    64.6352   -20.0773   -39.7763   120.0962    -0.1480    -3.0001   -35.4997     0.0000     0.0000     0.0000     1.0000   300.0000   300.0000   -33.8631    93.0844    -1.9790    -1.4485    20.0000    20.0000    10.0000    20.0000    26.0000    10.0000    16.0000    20.0000    -0.0005     0.0005   159.4164   -41.1662     3.9319    15.7000    14.7000     2.0000     1.0000   300.0170     0.000
     58     2.5000     0.3000    -0.0001     0.7500     34.192    114.000 194311.000     30.000    65.1560   -20.0773   -40.1105   120.0962    -0.1480    -3.0001   -35.2005     0.0000     0.0000     0.0000     1.0000   300.0000   300.0000   -33.8357    93.5871    -1.9790    -1.4485    20.0000    20.0000    10.0000    20.0000    26.0000    10.0000    16.0000    20.0000    -0.0005     0.0005   159.4164   -41.1662     3.9320    15.4500    14.7000     2.0000     1.0000   299.9420     0.000
     59     2.5000     0.3000    -0.0001     0.5001     33.330    269.000 194311.000     30.000    65.6897   -20.0773   -40.4533   120.0962    -0.1480    -3.0001   -34.8991     0.0000     0.0000     0.0000     1.0000   300.0000   300.0000   -33.8046    94.0958    -1.9790    -1.4485    20.0000    20.0000    10.0000    20.0000    26.0000    10.0000    16.0000    20.0000    -0.0005     0.0005   159.4164   -41.1662     3.9319    15.2001    14.7000     2.0000     1.0000   300.0150     0.000
     60     2.5000     0.3000    -0.0001     0.2499     31.716    443.000 194311.000     30.000    66.2366   -20.0773   -40.8052   120.0962    -0.1480    -3.0001   -34.5956     0.0000     0.0000     0.0000     1.0000   300.0000   300.0000   -33.7689    94.6145    -1.9790    -1.4485    20.0000    20.0000    10.0000    20.0000    26.0000    10.0000    16.0000    20.0000    -0.0005     0.0005   159.4164   -41.1662     3.9319    14.9499    14.7000     2.0000     1.0000   300.0200     0.000
     61     2.5000     0.3000    -0.0001     0.0001     30.227    549.000 194311.000     30.000    66.7975   -20.0773   -41.1661   120.0962    -0.1480    -3.0001   -34.2897     0.0000     0.0000     0.0000     1.0000   300.0000   300.0000   -33.7271    95.1436    -1.9790    -1.4485    20.0000    20.0000    10.0000    20.0000    26.0000    10.0000    16.0000    20.0000    -0.0005     0.0005   159.4164   -41.1662     3.9320    14.7001    14.7000     2.0000     1.0000   300.0040     0.000
# Sum of Counts = 3797
# Center of Mass = 5.194862+/-0.142818
# Full Width Half-Maximum = 9.690001+/-0.148476
# 12:06:15 AM  9/5/2024   scan completed.
