# scan = 1886
# date = 2/27/2025
# time = 5:11:13 AM
# proposal = 33477
# experiment = Commissioning and enabling the 4-circle capability at VERITAS
# experiment_number = 1046
# command = scan omega -26.28 -28.44 0.12
# builtin_command = scan omega -26.28 -28.44 0.12
# users = Feng Ye, Mike McDowell, Jiasen Guo, Adam Aczel, Kaleb Burrage, Wei Tian, Bing Li, Zachary Morgan
# local_contact = Wei Tian
# scan_title = Nuclear and magnetic T = 4.2522 K : (2.00 2.00 -1.00 )
# monochromator = PG002
# analyzer = Pg002
# sense = +-+
# collimation = 40-40-40-80
# samplename = La2Ni7, MnWO4
# sampletype = crystal
# samplemosaic = 30.000000
# latticeconstants = 5.763481,13.237448,13.107500,90.061893,90.163172,89.991874
# ubmatrix = 0.038443,-0.073655,-0.001432,0.168955,0.016625,0.004606,-0.009003,-0.002310,0.076140
# mode = 0
# plane_normal = 0.000000,0.000000,0.000000
# ubconf = UBmatrix-MnWO4-UB022425.dat
# preset_type = normal 
# preset_channel = time
# preset_value = 3.000000
# def_x = omega
# def_y = detector
# col_headers = 
#   Pt.      omega       time   detector    monitor        mcu         m2        chi        phi     2theta   slitb_bt   slitb_lf   slitb_rt   slitb_tp   slita_bt   slita_lf   slita_rt   slita_tp         a1         a2          h          k          l          e         ei    coldtip     sample       temp
      1   -26.2784      3.000     43.000  63028.000      3.266    41.5367    14.8195    79.3601   -54.7221    25.0000     6.0000     5.0000    25.0000    23.0000     4.0000     4.0000    23.0000    20.7703    41.5162     2.0186     1.9115    -1.0005     0.0000    14.4503     4.2537    16.3872     4.000
      2   -26.3998      3.000     20.000  63349.000      3.282    41.5367    14.8195    79.3601   -54.7221    25.0000     6.0000     5.0000    25.0000    23.0000     4.0000     4.0000    23.0000    20.7703    41.5162     2.0168     1.9215    -1.0005     0.0000    14.4503     4.2520    16.3854     4.000
      3   -26.5196      3.000     20.000  62775.000      3.253    41.5367    14.8195    79.3601   -54.7221    25.0000     6.0000     5.0000    25.0000    23.0000     4.0000     4.0000    23.0000    20.7703    41.5162     2.0151     1.9314    -1.0004     0.0000    14.4503     4.2499    16.3847     4.000
      4   -26.6393      3.000     35.000  63153.000      3.272    41.5367    14.8195    79.3601   -54.7221    25.0000     6.0000     5.0000    25.0000    23.0000     4.0000     4.0000    23.0000    20.7703    41.5162     2.0133     1.9412    -1.0004     0.0000    14.4503     4.2491    16.3830     4.000
      5   -26.7596      3.000     49.000  63268.000      3.278    41.5367    14.8195    79.3601   -54.7220    25.0000     6.0000     5.0000    25.0000    23.0000     4.0000     4.0000    23.0000    20.7703    41.5162     2.0115     1.9511    -1.0003     0.0000    14.4503     4.2514    16.3825     4.000
      6   -26.8801      3.000    102.000  62924.000      3.260    41.5367    14.8195    79.3601   -54.7220    25.0000     6.0000     5.0000    25.0000    23.0000     4.0000     4.0000    23.0000    20.7703    41.5162     2.0096     1.9610    -1.0002     0.0000    14.4503     4.2475    16.3798     4.000
      7   -27.0000      3.000    228.000  62879.000      3.258    41.5367    14.8195    79.3601   -54.7220    25.0000     6.0000     5.0000    25.0000    23.0000     4.0000     4.0000    23.0000    20.7703    41.5162     2.0078     1.9709    -1.0002     0.0000    14.4503     4.2469    16.3790     4.000
      8   -27.1202      3.000    457.000  63056.000      3.267    41.5367    14.8195    79.3601   -54.7220    25.0000     6.0000     5.0000    25.0000    23.0000     4.0000     4.0000    23.0000    20.7703    41.5162     2.0060     1.9807    -1.0001     0.0000    14.4503     4.2453    16.3779     4.000
      9   -27.2399      3.000    680.000  62990.000      3.264    41.5367    14.8195    79.3601   -54.7220    25.0000     6.0000     5.0000    25.0000    23.0000     4.0000     4.0000    23.0000    20.7703    41.5162     2.0042     1.9906    -1.0000     0.0000    14.4503     4.2482    16.3768     4.000
     10   -27.3598      3.000   1055.000  62751.000      3.251    41.5367    14.8195    79.3601   -54.7220    25.0000     6.0000     5.0000    25.0000    23.0000     4.0000     4.0000    23.0000    20.7703    41.5162     2.0023     2.0004    -1.0000     0.0000    14.4503     4.2435    16.3775     4.000
     11   -27.4798      3.000   1322.000  63132.000      3.271    41.5367    14.8195    79.3601   -54.7220    25.0000     6.0000     5.0000    25.0000    23.0000     4.0000     4.0000    23.0000    20.7703    41.5162     2.0004     2.0102    -0.9999     0.0000    14.4503     4.2468    16.3763     4.000
     12   -27.5993      3.000   1213.000  62553.000      3.241    41.5367    14.8195    79.3601   -54.7220    25.0000     6.0000     5.0000    25.0000    23.0000     4.0000     4.0000    23.0000    20.7703    41.5162     1.9986     2.0200    -0.9998     0.0000    14.4503     4.2437    16.3773     4.000
     13   -27.7194      3.000    654.000  62718.000      3.250    41.5367    14.8195    79.3601   -54.7220    25.0000     6.0000     5.0000    25.0000    23.0000     4.0000     4.0000    23.0000    20.7703    41.5162     1.9967     2.0298    -0.9997     0.0000    14.4503     4.2467    16.3754     4.000
     14   -27.8397      3.000    232.000  63272.000      3.278    41.5367    14.8195    79.3601   -54.7219    25.0000     6.0000     5.0000    25.0000    23.0000     4.0000     4.0000    23.0000    20.7703    41.5162     1.9948     2.0396    -0.9996     0.0000    14.4503     4.2414    16.3723     4.000
     15   -27.9604      3.000    101.000  63487.000      3.289    41.5367    14.8195    79.3601   -54.7219    25.0000     6.0000     5.0000    25.0000    23.0000     4.0000     4.0000    23.0000    20.7703    41.5162     1.9929     2.0494    -0.9995     0.0000    14.4503     4.2448    16.3731     4.000
     16   -28.0802      3.000     71.000  63216.000      3.275    41.5367    14.8195    79.3601   -54.7219    25.0000     6.0000     5.0000    25.0000    23.0000     4.0000     4.0000    23.0000    20.7703    41.5162     1.9910     2.0592    -0.9994     0.0000    14.4503     4.2416    16.3710     4.000
     17   -28.2001      3.000     29.000  63281.000      3.279    41.5367    14.8195    79.3601   -54.7219    25.0000     6.0000     5.0000    25.0000    23.0000     4.0000     4.0000    23.0000    20.7703    41.5162     1.9891     2.0690    -0.9993     0.0000    14.4503     4.2404    16.3729     4.000
     18   -28.3197      3.000     19.000  63501.000      3.290    41.5367    14.8195    79.3601   -54.7219    25.0000     6.0000     5.0000    25.0000    23.0000     4.0000     4.0000    23.0000    20.7703    41.5162     1.9872     2.0787    -0.9992     0.0000    14.4503     4.2433    16.3733     4.000
     19   -28.4398      3.000     19.000  63479.000      3.289    41.5367    14.8195    79.3601   -54.7219    25.0000     6.0000     5.0000    25.0000    23.0000     4.0000     4.0000    23.0000    20.7703    41.5162     1.9853     2.0884    -0.9991     0.0000    14.4503     4.2400    16.3731     4.000
# Sum of Counts = 6349
# Center of Mass = -27.440361+/-0.487039
# Full Width Half-Maximum = 0.575934+/-0.208902
# 5:13:07 AM  2/27/2025   scan completed.
